# Fitzpatrick and Massa 2007, Rv = 5
# Wavelength_Angstrom	Alambda_Av
   90.90000       5671.435    
   93.50001       5193.361    
   96.10000       4766.634    
   97.70000       4526.621    
   99.60000       4261.686    
   102.0000       3955.226    
   103.8000       3744.026    
   105.6000       3547.302    
   107.7000       3334.472    
   110.4000       3084.634    
   114.0000       2788.117    
   117.8000       2514.124    
   121.3000       2291.978    
   124.8000       2094.686    
   127.1000       1976.927    
   128.4000       1914.157    
   130.5000       1818.115    
   132.4000       1736.542    
   133.9000       1675.469    
   136.6000       1572.378    
   139.8000       1460.588    
   143.3000       1349.818    
   147.2000       1238.860    
   151.0000       1141.835    
   155.2000       1045.719    
   158.8000       971.4990    
   162.0000       911.1416    
   166.0000       842.3197    
   170.3000       775.6266    
   173.4000       731.7178    
   176.8000       687.1688    
   180.2000       646.0488    
   181.7000       628.9135    
   186.1000       581.9066    
   191.0000       534.7347    
   193.9000       509.1151    
   198.4000       472.3936    
   201.8000       446.8746    
   205.0000       424.4490    
   210.5000       389.1616    
   216.2000       356.4545    
   219.8000       337.5948    
   223.0000       321.8879    
   226.8000       304.4272    
   230.0000       290.6506    
   234.0000       274.5281    
   240.0000       252.4196    
   246.5000       230.9630    
   252.4000       213.4588    
   256.8000       201.4913    
   260.0000       193.3193    
   264.0000       183.6868    
   268.5000       173.5667    
   273.5000       163.1373    
   278.5000       153.4899    
   284.0000       143.6977    
   290.0000       133.9001    
   296.0000       124.9333    
   301.0000       118.0344    
   308.0000       109.1652    
   318.0000       97.90487    
   328.0000       88.07310    
   338.0000       79.45609    
   348.0000       71.87657    
   357.0000       65.81989    
   366.0000       60.39324    
   375.0000       55.51934    
   385.0000       50.67150    
   395.0000       46.34609    
   405.0000       42.47688    
   414.0000       39.33762    
   422.0000       36.78983    
   430.0000       34.44741    
   441.0000       31.52650    
   451.0000       29.13887    
   460.0000       27.18336    
   470.0000       25.20234    
   480.0000       23.40195    
   490.0000       21.76288    
   500.0000       20.26820    
   506.0000       19.43443    
   512.0000       18.64436    
   520.0000       17.65424    
   530.0000       16.51025    
   540.0000       15.46077    
   550.0000       14.49670    
   560.0000       13.60995    
   570.0000       12.79328    
   580.0000       12.04025    
   590.0000       11.34509    
   600.0000       10.70265    
   610.0000       10.10826    
   620.0000       9.557775    
   630.0000       9.047425    
   640.0000       8.573826    
   650.0000       8.133915    
   658.0001       7.804374    
   665.0000       7.531236    
   675.0000       7.164000    
   685.0000       6.821839    
   695.0000       6.502781    
   705.0000       6.205032    
   716.0000       5.900173    
   726.0000       5.642021    
   735.0000       5.423985    
   745.0000       5.196476    
   755.0000       4.983397    
   765.0000       4.783697    
   775.0000       4.596419    
   785.0000       4.420679    
   795.0000       4.255668    
   805.0000       4.100640    
   815.0000       3.954906    
   825.0000       3.817833    
   835.0000       3.688838    
   845.0000       3.567379    
   855.0000       3.452959    
   865.0000       3.345114    
   875.0000       3.243419    
   885.0000       3.147476    
   895.0000       3.056917    
   905.0000       2.971403    
   915.0000       2.890617    
   925.0000       2.814265    
   935.0000       2.742073    
   945.0000       2.673786    
   955.0000       2.609168    
   965.0000       2.547998    
   975.0000       2.490069    
   985.0000       2.435190    
   995.0000       2.383181    
   1005.000       2.333875    
   1015.000       2.287114    
   1025.000       2.242753    
   1035.000       2.200654    
   1045.000       2.160689    
   1055.000       2.122737    
   1065.000       2.086688    
   1075.000       2.052433    
   1085.000       2.019874    
   1095.000       1.988919    
   1105.000       1.959480    
   1115.000       1.931474    
   1125.000       1.904826    
   1135.000       1.879461    
   1145.000       1.855312    
   1155.000       1.832314    
   1165.000       1.810408    
   1175.000       1.789536    
   1185.000       1.769644    
   1195.000       1.750681    
   1205.000       1.732601    
   1215.000       1.715357    
   1225.000       1.698907    
   1235.000       1.683212    
   1245.000       1.668232    
   1255.000       1.654114    
   1265.000       1.640758    
   1275.000       1.628290    
   1285.000       1.616654    
   1295.000       1.605799    
   1305.000       1.595678    
   1315.000       1.586245    
   1325.000       1.577458    
   1335.000       1.569278    
   1345.000       1.561668    
   1355.000       1.554593    
   1365.000       1.548022    
   1375.000       1.541923    
   1385.000       1.536269    
   1395.000       1.531032    
   1405.000       1.526190    
   1415.000       1.521719    
   1425.000       1.517596    
   1435.000       1.513803    
   1442.000       1.511335    
   1447.000       1.509661    
   1455.000       1.507134    
   1465.000       1.504225    
   1475.000       1.501580    
   1485.000       1.499184    
   1495.000       1.497027    
   1505.000       1.495097    
   1512.000       1.493876    
   1517.000       1.493067    
   1525.000       1.491879    
   1535.000       1.490574    
   1545.000       1.489461    
   1555.000       1.488535    
   1565.000       1.487790    
   1575.000       1.487223    
   1585.000       1.486828    
   1595.000       1.486605    
   1605.000       1.486551    
   1615.000       1.486666    
   1625.000       1.486949    
   1635.000       1.487402    
   1645.000       1.488027    
   1655.000       1.488827    
   1665.000       1.489806    
   1672.000       1.490600    
   1677.000       1.491224    
   1685.000       1.492321    
   1695.000       1.493870    
   1705.000       1.495627    
   1715.000       1.497608    
   1725.000       1.499825    
   1735.000       1.502294    
   1745.000       1.505030    
   1755.000       1.508051    
   1765.000       1.511375    
   1775.000       1.515023    
   1785.000       1.519014    
   1795.000       1.523372    
   1805.000       1.528122    
   1815.000       1.533288    
   1825.000       1.538898    
   1835.000       1.544982    
   1845.000       1.551569    
   1855.000       1.558691    
   1865.000       1.566380    
   1875.000       1.574671    
   1885.000       1.583596    
   1895.000       1.593190    
   1905.000       1.603485    
   1915.000       1.614512    
   1925.000       1.626300    
   1935.000       1.638871    
   1945.000       1.652242    
   1955.000       1.666424    
   1967.000       1.684508    
   1976.000       1.698819    
   1984.000       1.712058    
   1995.000       1.731007    
   2005.000       1.748912    
   2015.000       1.767363    
   2025.000       1.786238    
   2035.000       1.805385    
   2045.000       1.824623    
   2055.000       1.843742    
   2065.000       1.862509    
   2074.000       1.878885    
   2078.000       1.885953    
   2085.000       1.897942    
   2095.000       1.914063    
   2105.000       1.928755    
   2115.000       1.941758    
   2125.000       1.952842    
   2135.000       1.961809    
   2145.000       1.968509    
   2155.000       1.972841    
   2165.000       1.974763    
   2175.000       1.974286    
   2185.000       1.971476    
   2195.000       1.966445    
   2205.000       1.959350    
   2215.000       1.950377    
   2225.000       1.939735    
   2235.000       1.927646    
   2245.000       1.914339    
   2255.000       1.900037    
   2265.000       1.884957    
   2275.000       1.869299    
   2285.000       1.853247    
   2295.000       1.836968    
   2305.000       1.820605    
   2315.000       1.804285    
   2325.000       1.788114    
   2335.000       1.772178    
   2345.000       1.756550    
   2355.000       1.741285    
   2365.000       1.726428    
   2375.000       1.712009    
   2385.000       1.698051    
   2395.000       1.684568    
   2405.000       1.671566    
   2415.000       1.659046    
   2425.000       1.647006    
   2435.000       1.635438    
   2445.000       1.624333    
   2455.000       1.613677    
   2465.000       1.603457    
   2475.000       1.593659    
   2485.000       1.584267    
   2495.000       1.575265    
   2505.000       1.566636    
   2513.000       1.559992    
   2518.000       1.555951    
   2525.000       1.550436    
   2535.000       1.542832    
   2545.000       1.535538    
   2555.000       1.528541    
   2565.000       1.521824    
   2575.000       1.515376    
   2585.000       1.509181    
   2595.000       1.503229    
   2605.000       1.497507    
   2615.000       1.492003    
   2625.000       1.486707    
   2635.000       1.481609    
   2645.000       1.476698    
   2655.000       1.471965    
   2665.000       1.467402    
   2675.000       1.463000    
   2685.000       1.458752    
   2695.000       1.454650    
   2705.000       1.450687    
   2715.000       1.446856    
   2725.000       1.443151    
   2735.000       1.439567    
   2745.000       1.436097    
   2755.000       1.432736    
   2765.000       1.429480    
   2775.000       1.426323    
   2785.000       1.423261    
   2795.000       1.420290    
   2805.000       1.417406    
   2815.000       1.414605    
   2825.000       1.411883    
   2835.000       1.409238    
   2845.000       1.406665    
   2855.000       1.404162    
   2865.000       1.401725    
   2875.000       1.399353    
   2885.000       1.397042    
   2895.000       1.394790    
   2910.000       1.391517    
   2930.000       1.387339    
   2950.000       1.383359    
   2970.000       1.379560    
   2990.000       1.375931    
   3010.000       1.372459    
   3030.000       1.369133    
   3050.000       1.366468    
   3070.000       1.364182    
   3090.000       1.362079    
   3110.000       1.360160    
   3130.000       1.358424    
   3150.000       1.356863    
   3170.000       1.355465    
   3190.000       1.354215    
   3210.000       1.353099    
   3230.000       1.352097    
   3250.000       1.351193    
   3270.000       1.350367    
   3290.000       1.349602    
   3310.000       1.348880    
   3330.000       1.348184    
   3350.000       1.347496    
   3370.000       1.346802    
   3390.000       1.346086    
   3410.000       1.345336    
   3430.000       1.344539    
   3450.000       1.343684    
   3470.000       1.342761    
   3490.000       1.341760    
   3510.000       1.340675    
   3530.000       1.339497    
   3550.000       1.338221    
   3570.000       1.336843    
   3590.000       1.335358    
   3610.000       1.333764    
   3630.000       1.332057    
   3640.000       1.331161    
   3650.000       1.330237    
   3670.000       1.328302    
   3690.000       1.326253    
   3710.000       1.324089    
   3730.000       1.321812    
   3750.000       1.319423    
   3770.000       1.316923    
   3790.000       1.314315    
   3810.000       1.311602    
   3830.000       1.308786    
   3850.000       1.305870    
   3870.000       1.302858    
   3890.000       1.299752    
   3910.000       1.296558    
   3930.000       1.293278    
   3950.000       1.289917    
   3970.000       1.286477    
   3990.000       1.282965    
   4010.000       1.279382    
   4030.000       1.275735    
   4050.000       1.272025    
   4070.000       1.268258    
   4090.000       1.264438    
   4110.000       1.260568    
   4130.000       1.256653    
   4150.000       1.252696    
   4170.000       1.248700    
   4190.000       1.244671    
   4210.000       1.240610    
   4230.000       1.236522    
   4250.000       1.232410    
   4270.000       1.228276    
   4290.000       1.224126    
   4310.000       1.219960    
   4330.000       1.215783    
   4350.000       1.211596    
   4370.000       1.207403    
   4390.000       1.203207    
   4410.000       1.199009    
   4430.000       1.194811    
   4450.000       1.190617    
   4470.000       1.186428    
   4490.000       1.182246    
   4510.000       1.178073    
   4530.000       1.173911    
   4550.000       1.169761    
   4570.000       1.165625    
   4590.000       1.161505    
   4610.000       1.157401    
   4630.000       1.153315    
   4650.000       1.149248    
   4670.000       1.145201    
   4690.000       1.141175    
   4710.000       1.137170    
   4730.000       1.133189    
   4750.000       1.129231    
   4770.000       1.125297    
   4790.000       1.121388    
   4810.000       1.117504    
   4830.000       1.113645    
   4850.000       1.109812    
   4870.000       1.106005    
   4890.000       1.102225    
   4910.000       1.098472    
   4930.000       1.094745    
   4950.000       1.091046    
   4970.000       1.087373    
   4990.000       1.083727    
   5010.000       1.080108    
   5030.000       1.076516    
   5050.000       1.072950    
   5070.000       1.069411    
   5090.000       1.065899    
   5110.000       1.062413    
   5130.000       1.058952    
   5150.000       1.055517    
   5170.000       1.052107    
   5190.000       1.048723    
   5210.000       1.045363    
   5230.000       1.042027    
   5250.000       1.038715    
   5270.000       1.035427    
   5290.000       1.032162    
   5310.000       1.028920    
   5330.000       1.025700    
   5350.000       1.022501    
   5370.000       1.019325    
   5390.000       1.016169    
   5410.000       1.013033    
   5430.000       1.009918    
   5450.000       1.006822    
   5470.000       1.003745    
   5490.000       1.000686    
   5510.000      0.9976461    
   5530.000      0.9946234    
   5550.000      0.9916179    
   5570.000      0.9886289    
   5590.000      0.9856560    
   5610.000      0.9826989    
   5630.000      0.9797570    
   5650.000      0.9768298    
   5670.000      0.9739169    
   5690.000      0.9710178    
   5710.000      0.9681320    
   5730.000      0.9652591    
   5750.000      0.9623986    
   5770.000      0.9595501    
   5790.000      0.9567133    
   5810.000      0.9538876    
   5830.000      0.9510726    
   5850.000      0.9482680    
   5870.000      0.9454733    
   5890.000      0.9426881    
   5910.000      0.9399120    
   5930.000      0.9371448    
   5950.000      0.9343858    
   5970.000      0.9316350    
   5990.000      0.9288917    
   6010.000      0.9261559    
   6030.000      0.9234270    
   6050.000      0.9207049    
   6070.000      0.9179891    
   6090.000      0.9152794    
   6110.000      0.9125754    
   6130.000      0.9098769    
   6150.000      0.9071836    
   6170.000      0.9044954    
   6190.000      0.9018117    
   6210.000      0.8991324    
   6230.000      0.8964575    
   6250.000      0.8937863    
   6270.000      0.8911190    
   6290.000      0.8884552    
   6310.000      0.8857946    
   6330.000      0.8831372    
   6350.000      0.8804827    
   6370.000      0.8778310    
   6390.000      0.8751819    
   6410.000      0.8725352    
   6430.000      0.8698907    
   6450.000      0.8672484    
   6470.000      0.8646081    
   6490.000      0.8619697    
   6510.000      0.8593330    
   6530.000      0.8566980    
   6550.000      0.8540645    
   6570.000      0.8514324    
   6590.000      0.8488017    
   6610.000      0.8461722    
   6630.000      0.8435440    
   6650.000      0.8409168    
   6670.000      0.8382908    
   6690.000      0.8356658    
   6710.000      0.8330417    
   6730.000      0.8304185    
   6750.000      0.8277961    
   6770.000      0.8251747    
   6790.000      0.8225542    
   6810.000      0.8199345    
   6830.000      0.8173155    
   6850.000      0.8146974    
   6870.000      0.8120801    
   6890.000      0.8094636    
   6910.000      0.8068480    
   6930.000      0.8042331    
   6950.000      0.8016192    
   6970.000      0.7990061    
   6990.000      0.7963941    
   7010.000      0.7937829    
   7030.000      0.7911728    
   7050.000      0.7885637    
   7070.000      0.7859556    
   7090.000      0.7833488    
   7110.000      0.7807432    
   7130.000      0.7781388    
   7150.000      0.7755358    
   7170.000      0.7729341    
   7190.000      0.7703340    
   7210.000      0.7677354    
   7230.000      0.7651384    
   7250.000      0.7625432    
   7270.000      0.7599497    
   7290.000      0.7573581    
   7310.000      0.7547685    
   7330.000      0.7521809    
   7350.000      0.7495956    
   7370.000      0.7470124    
   7390.000      0.7444315    
   7410.000      0.7418532    
   7430.000      0.7392774    
   7450.000      0.7367043    
   7470.000      0.7341338    
   7490.000      0.7315665    
   7510.000      0.7290019    
   7530.000      0.7264406    
   7550.000      0.7238824    
   7570.000      0.7213276    
   7590.000      0.7187763    
   7610.000      0.7162285    
   7630.000      0.7136844    
   7650.000      0.7111440    
   7670.000      0.7086078    
   7690.000      0.7060755    
   7710.000      0.7035474    
   7730.000      0.7010236    
   7750.000      0.6985043    
   7770.000      0.6959896    
   7790.000      0.6934794    
   7810.000      0.6909742    
   7830.000      0.6884739    
   7850.000      0.6859786    
   7870.000      0.6834887    
   7890.000      0.6810039    
   7910.000      0.6785247    
   7930.000      0.6760511    
   7950.000      0.6735832    
   7970.000      0.6711212    
   7990.000      0.6686651    
   8010.000      0.6662154    
   8030.000      0.6637717    
   8050.000      0.6613343    
   8070.000      0.6589037    
   8090.000      0.6564795    
   8110.000      0.6540621    
   8130.000      0.6516517    
   8150.000      0.6492483    
   8170.000      0.6468521    
   8190.000      0.6444632    
   8210.000      0.6420816    
   8230.000      0.6397076    
   8250.000      0.6373414    
   8270.000      0.6349829    
   8290.000      0.6326323    
   8310.000      0.6302899    
   8330.000      0.6279556    
   8350.000      0.6256295    
   8370.000      0.6233120    
   8390.000      0.6210030    
   8410.000      0.6187027    
   8430.000      0.6164111    
   8450.000      0.6141286    
   8470.000      0.6118550    
   8490.000      0.6095906    
   8510.000      0.6073355    
   8530.000      0.6050898    
   8550.000      0.6028535    
   8570.000      0.6006269    
   8590.000      0.5984102    
   8610.000      0.5962033    
   8630.000      0.5940063    
   8650.000      0.5918194    
   8670.000      0.5896429    
   8690.000      0.5874764    
   8710.000      0.5853205    
   8730.000      0.5831751    
   8750.000      0.5810404    
   8770.000      0.5789163    
   8790.000      0.5768032    
   8810.000      0.5747010    
   8830.000      0.5726098    
   8850.000      0.5705298    
   8870.000      0.5684611    
   8890.000      0.5664037    
   8910.000      0.5643578    
   8930.000      0.5623235    
   8950.000      0.5603008    
   8970.000      0.5582898    
   8990.000      0.5562906    
   9010.000      0.5543035    
   9030.000      0.5523283    
   9050.000      0.5503653    
   9070.000      0.5484145    
   9090.000      0.5464760    
   9110.000      0.5444747    
   9130.000      0.5425557    
   9150.000      0.5406477    
   9170.000      0.5387504    
   9190.000      0.5368640    
   9210.000      0.5349883    
   9230.000      0.5331232    
   9250.000      0.5312685    
   9270.000      0.5294244    
   9290.000      0.5275906    
   9310.000      0.5257670    
   9330.000      0.5239536    
   9350.000      0.5221503    
   9370.000      0.5203572    
   9390.000      0.5185739    
   9410.000      0.5168005    
   9430.000      0.5150370    
   9450.000      0.5132833    
   9470.000      0.5115391    
   9490.000      0.5098045    
   9510.000      0.5080795    
   9530.000      0.5063639    
   9550.000      0.5046576    
   9570.000      0.5029607    
   9590.000      0.5012730    
   9610.000      0.4995945    
   9630.000      0.4979250    
   9650.000      0.4962646    
   9670.000      0.4946131    
   9690.000      0.4929705    
   9710.000      0.4913368    
   9730.000      0.4897118    
   9750.000      0.4880956    
   9770.000      0.4864879    
   9790.000      0.4848887    
   9810.000      0.4832981    
   9830.000      0.4817160    
   9850.000      0.4801423    
   9870.000      0.4785768    
   9890.000      0.4770197    
   9910.000      0.4754706    
   9930.000      0.4739298    
   9950.000      0.4723970    
   9970.000      0.4708722    
   9990.000      0.4693554    
   10025.00      0.4667200    
   10075.00      0.4629965    
   10125.00      0.4593210    
   10175.00      0.4556925    
   10225.00      0.4521102    
   10275.00      0.4485734    
   10325.00      0.4450812    
   10375.00      0.4416329    
   10425.00      0.4382277    
   10475.00      0.4348649    
   10525.00      0.4315436    
   10575.00      0.4282633    
   10625.00      0.4250232    
   10675.00      0.4218227    
   10725.00      0.4186611    
   10775.00      0.4155377    
   10825.00      0.4124520    
   10875.00      0.4094031    
   10925.00      0.4063907    
   10975.00      0.4034140    
   11025.00      0.4004725    
   11075.00      0.3975657    
   11125.00      0.3946928    
   11175.00      0.3918535    
   11225.00      0.3890472    
   11275.00      0.3862733    
   11325.00      0.3835313    
   11375.00      0.3808206    
   11425.00      0.3781410    
   11475.00      0.3754918    
   11525.00      0.3728726    
   11575.00      0.3702827    
   11625.00      0.3677220    
   11675.00      0.3651898    
   11725.00      0.3626858    
   11775.00      0.3602096    
   11825.00      0.3577605    
   11875.00      0.3553384    
   11925.00      0.3529428    
   11975.00      0.3505732    
   12025.00      0.3482293    
   12075.00      0.3459107    
   12125.00      0.3436170    
   12175.00      0.3413479    
   12225.00      0.3391030    
   12275.00      0.3368819    
   12325.00      0.3346843    
   12375.00      0.3325098    
   12425.00      0.3303582    
   12475.00      0.3282291    
   12525.00      0.3261220    
   12575.00      0.3240368    
   12625.00      0.3219732    
   12675.00      0.3199308    
   12725.00      0.3179093    
   12775.00      0.3159084    
   12825.00      0.3139279    
   12875.00      0.3119674    
   12925.00      0.3100267    
   12975.00      0.3081055    
   13025.00      0.3062035    
   13075.00      0.3043204    
   13125.00      0.3024561    
   13175.00      0.3006102    
   13225.00      0.2987825    
   13275.00      0.2969728    
   13325.00      0.2951808    
   13375.00      0.2934062    
   13425.00      0.2916488    
   13475.00      0.2899085    
   13525.00      0.2881849    
   13575.00      0.2864779    
   13625.00      0.2847872    
   13675.00      0.2831127    
   13725.00      0.2814540    
   13775.00      0.2798110    
   13825.00      0.2781835    
   13875.00      0.2765713    
   13925.00      0.2749742    
   13975.00      0.2733921    
   14025.00      0.2718245    
   14075.00      0.2702715    
   14125.00      0.2687329    
   14175.00      0.2672084    
   14225.00      0.2656979    
   14275.00      0.2642012    
   14325.00      0.2627181    
   14375.00      0.2612484    
   14425.00      0.2597920    
   14475.00      0.2583488    
   14525.00      0.2569184    
   14570.00      0.2556421    
   14620.00      0.2542360    
   14675.00      0.2527037    
   14725.00      0.2513236    
   14775.00      0.2499557    
   14825.00      0.2485998    
   14875.00      0.2472558    
   14925.00      0.2459236    
   14975.00      0.2446029    
   15025.00      0.2432937    
   15075.00      0.2419959    
   15125.00      0.2407092    
   15175.00      0.2394336    
   15225.00      0.2381689    
   15275.00      0.2369149    
   15325.00      0.2356717    
   15375.00      0.2344390    
   15425.00      0.2332168    
   15475.00      0.2320048    
   15525.00      0.2308030    
   15575.00      0.2296112    
   15625.00      0.2284294    
   15675.00      0.2272574    
   15725.00      0.2260952    
   15775.00      0.2249426    
   15825.00      0.2237994    
   15875.00      0.2226656    
   15925.00      0.2215412    
   15975.00      0.2204258    
   16050.00      0.2187698    
   16150.00      0.2165931    
   16250.00      0.2144511    
   16350.00      0.2123434    
   16450.00      0.2102690    
   16550.00      0.2082272    
   16650.00      0.2062174    
   16750.00      0.2042389    
   16850.00      0.2022910    
   16950.00      0.2003729    
   17050.00      0.1984842    
   17150.00      0.1966242    
   17250.00      0.1947923    
   17350.00      0.1929879    
   17450.00      0.1912105    
   17550.00      0.1894594    
   17650.00      0.1877342    
   17750.00      0.1860343    
   17850.00      0.1843592    
   17950.00      0.1827084    
   18050.00      0.1810815    
   18150.00      0.1794779    
   18250.00      0.1778972    
   18350.00      0.1763389    
   18450.00      0.1748027    
   18550.00      0.1732880    
   18650.00      0.1717945    
   18750.00      0.1703218    
   18850.00      0.1688694    
   18950.00      0.1674370    
   19050.00      0.1660242    
   19150.00      0.1646306    
   19250.00      0.1632559    
   19350.00      0.1618997    
   19450.00      0.1605616    
   19550.00      0.1592414    
   19650.00      0.1579387    
   19750.00      0.1566532    
   19850.00      0.1553846    
   19950.00      0.1541325    
   20050.00      0.1528967    
   20150.00      0.1516769    
   20250.00      0.1504728    
   20350.00      0.1492841    
   20450.00      0.1481106    
   20550.00      0.1469519    
   20650.00      0.1458079    
   20750.00      0.1446782    
   20850.00      0.1435627    
   20950.00      0.1424610    
   21050.00      0.1413730    
   21150.00      0.1402984    
   21250.00      0.1392369    
   21350.00      0.1381884    
   21450.00      0.1371527    
   21550.00      0.1361295    
   21650.00      0.1351186    
   21750.00      0.1341198    
   21850.00      0.1331329    
   21950.00      0.1321578    
   22050.00      0.1311941    
   22150.00      0.1302419    
   22250.00      0.1293007    
   22350.00      0.1283706    
   22450.00      0.1274512    
   22550.00      0.1265425    
   22650.00      0.1256442    
   22750.00      0.1247562    
   22850.00      0.1238784    
   22950.00      0.1230105    
   23050.00      0.1221524    
   23150.00      0.1213040    
   23250.00      0.1204651    
   23350.00      0.1196356    
   23450.00      0.1188153    
   23550.00      0.1180041    
   23650.00      0.1172017    
   23750.00      0.1164083    
   23850.00      0.1156235    
   23950.00      0.1148472    
   24050.00      0.1140793    
   24150.00      0.1133198    
   24250.00      0.1125684    
   24350.00      0.1118250    
   24450.00      0.1110896    
   24550.00      0.1103620    
   24650.00      0.1096420    
   24750.00      0.1089297    
   24850.00      0.1082248    
   24950.00      0.1075273    
   25050.00      0.1068370    
   25150.00      0.1061539    
   25250.00      0.1054779    
   25350.00      0.1048088    
   25450.00      0.1041466    
   25550.00      0.1034911    
   25650.00      0.1028423    
   25750.00      0.1022000    
   25850.00      0.1015642    
   25950.00      0.1009348    
   26050.00      0.1003118    
   26150.00      9.9694870E-02
   26250.00      9.9084117E-02
   26350.00      9.8479420E-02
   26450.00      9.7880661E-02
   26550.00      9.7287796E-02
   26650.00      9.6700728E-02
   26750.00      9.6119381E-02
   26850.00      9.5543675E-02
   26950.00      9.4973549E-02
   27050.00      9.4408907E-02
   27150.00      9.3849681E-02
   27250.00      9.3295828E-02
   27350.00      9.2747234E-02
   27450.00      9.2203863E-02
   27550.00      9.1665626E-02
   27650.00      9.1132469E-02
   27750.00      9.0604313E-02
   27850.00      9.0081111E-02
   27950.00      8.9562781E-02
   28050.00      8.9049280E-02
   28150.00      8.8540517E-02
   28250.00      8.8036455E-02
   28350.00      8.7537043E-02
   28450.00      8.7042183E-02
   28550.00      8.6551867E-02
   28650.00      8.6065993E-02
   28750.00      8.5584544E-02
   28850.00      8.5107438E-02
   28950.00      8.4634617E-02
   29050.00      8.4166065E-02
   29150.00      8.3701693E-02
   29250.00      8.3241440E-02
   29350.00      8.2785301E-02
   29450.00      8.2333185E-02
   29550.00      8.1885070E-02
   29650.00      8.1440896E-02
   29750.00      8.1000611E-02
   29850.00      8.0564164E-02
   29950.00      8.0131516E-02
   30050.00      7.9702631E-02
   30150.00      7.9277456E-02
   30250.00      7.8855939E-02
   30350.00      7.8438051E-02
   30450.00      7.8023732E-02
   30550.00      7.7612944E-02
   30650.00      7.7205665E-02
   30750.00      7.6801836E-02
   30850.00      7.6401420E-02
   30950.00      7.6004386E-02
   31050.00      7.5610682E-02
   31150.00      7.5220250E-02
   31250.00      7.4833095E-02
   31350.00      7.4449167E-02
   31450.00      7.4068412E-02
   31550.00      7.3690802E-02
   31650.00      7.3316306E-02
   31750.00      7.2944887E-02
   31850.00      7.2576515E-02
   31950.00      7.2211131E-02
   32100.00      7.1668640E-02
   32300.00      7.0955522E-02
   32500.00      7.0253842E-02
   32700.00      6.9563329E-02
   32900.00      6.8883762E-02
   33100.00      6.8214901E-02
   33300.00      6.7556493E-02
   33500.00      6.6908315E-02
   33700.00      6.6270180E-02
   33900.00      6.5641850E-02
   34100.00      6.5023102E-02
   34300.00      6.4413771E-02
   34500.00      6.3813634E-02
   34700.00      6.3222528E-02
   34900.00      6.2640235E-02
   35100.00      6.2066577E-02
   35300.00      6.1501402E-02
   35500.00      6.0944520E-02
   35700.00      6.0395766E-02
   35900.00      5.9854966E-02
   36100.00      5.9321988E-02
   36300.00      5.8796652E-02
   36500.00      5.8278821E-02
   36700.00      5.7768341E-02
   36900.00      5.7265073E-02
   37100.00      5.6768868E-02
   37300.00      5.6279607E-02
   37500.00      5.5797145E-02
   37700.00      5.5321343E-02
   37900.00      5.4852087E-02
   38100.00      5.4389246E-02
   38300.00      5.3932708E-02
   38500.00      5.3482354E-02
   38700.00      5.3038061E-02
   38900.00      5.2599721E-02
   39100.00      5.2167218E-02
   39300.00      5.1740468E-02
   39500.00      5.1319327E-02
   39700.00      5.0903726E-02
   39900.00      5.0493550E-02
   40100.00      5.0088707E-02
   40300.00      4.9689099E-02
   40500.00      4.9294639E-02
   40700.00      4.8905231E-02
   40900.00      4.8520777E-02
   41100.00      4.8141204E-02
   41300.00      4.7766421E-02
   41500.00      4.7396347E-02
   41700.00      4.7030896E-02
   41900.00      4.6669994E-02
   42100.00      4.6313554E-02
   42300.00      4.5961503E-02
   42500.00      4.5613784E-02
   42700.00      4.5270298E-02
   42900.00      4.4930998E-02
   43100.00      4.4595793E-02
   43300.00      4.4264622E-02
   43500.00      4.3937419E-02
   43700.00      4.3614127E-02
   43900.00      4.3294668E-02
   44100.00      4.2978983E-02
   44300.00      4.2667016E-02
   44500.00      4.2358700E-02
   44700.00      4.2053986E-02
   44900.00      4.1752808E-02
   45100.00      4.1455109E-02
   45300.00      4.1160837E-02
   45500.00      4.0869929E-02
   45700.00      4.0582351E-02
   45900.00      4.0298034E-02
   46100.00      4.0016934E-02
   46300.00      3.9738994E-02
   46500.00      3.9464176E-02
   46700.00      3.9192419E-02
   46900.00      3.8923688E-02
   47100.00      3.8657933E-02
   47300.00      3.8395099E-02
   47500.00      3.8135160E-02
   47700.00      3.7878055E-02
   47900.00      3.7623752E-02
   48100.00      3.7372205E-02
   48300.00      3.7123371E-02
   48500.00      3.6877211E-02
   48700.00      3.6633689E-02
   48900.00      3.6392760E-02
   49100.00      3.6154393E-02
   49300.00      3.5918549E-02
   49500.00      3.5685182E-02
   49700.00      3.5454262E-02
   49900.00      3.5225764E-02
   50100.00      3.4999635E-02
   50300.00      3.4775853E-02
   50500.00      3.4554385E-02
   50700.00      3.4335189E-02
   50900.00      3.4118243E-02
   51100.00      3.3903506E-02
   51300.00      3.3690955E-02
   51500.00      3.3480555E-02
   51700.00      3.3272278E-02
   51900.00      3.3066090E-02
   52100.00      3.2861967E-02
   52300.00      3.2659873E-02
   52500.00      3.2459795E-02
   52700.00      3.2261696E-02
   52900.00      3.2065544E-02
   53100.00      3.1871323E-02
   53300.00      3.1679001E-02
   53500.00      3.1488549E-02
   53700.00      3.1299952E-02
   53900.00      3.1113178E-02
   54100.00      3.0928202E-02
   54300.00      3.0745002E-02
   54500.00      3.0563558E-02
   54700.00      3.0383842E-02
   54900.00      3.0205833E-02
   55100.00      3.0029507E-02
   55300.00      2.9854845E-02
   55500.00      2.9681820E-02
   55700.00      2.9510420E-02
   55900.00      2.9340621E-02
   56100.00      2.9172394E-02
   56300.00      2.9005727E-02
   56500.00      2.8840600E-02
   56700.00      2.8676989E-02
   56900.00      2.8514877E-02
   57100.00      2.8354250E-02
   57300.00      2.8195078E-02
   57500.00      2.8037356E-02
   57700.00      2.7881054E-02
   57900.00      2.7726160E-02
   58100.00      2.7572662E-02
   58300.00      2.7420536E-02
   58500.00      2.7269756E-02
   58700.00      2.7120326E-02
   58900.00      2.6972217E-02
   59100.00      2.6825413E-02
   59300.00      2.6679901E-02
   59500.00      2.6535666E-02
   59700.00      2.6392687E-02
   59900.00      2.6250955E-02
   60100.00      2.6110448E-02
   60300.00      2.5971163E-02
   60500.00      2.5833076E-02
   60700.00      2.5696173E-02
   60900.00      2.5560446E-02
   61100.00      2.5425876E-02
   61300.00      2.5292451E-02
   61500.00      2.5160154E-02
   61700.00      2.5028979E-02
   61900.00      2.4898911E-02
   62100.00      2.4769932E-02
   62300.00      2.4642030E-02
   62500.00      2.4515199E-02
   62700.00      2.4389422E-02
   62900.00      2.4264691E-02
   63100.00      2.4140986E-02
   63300.00      2.4018301E-02
   63500.00      2.3896625E-02
   63700.00      2.3775946E-02
   63900.00      2.3656247E-02
   64200.00      2.3478528E-02
   64600.00      2.3244914E-02
   65000.00      2.3015045E-02
   65400.00      2.2788834E-02
   65800.00      2.2566205E-02
   66200.00      2.2347087E-02
   66600.00      2.2131395E-02
   67000.00      2.1919055E-02
   67400.00      2.1710001E-02
   67800.00      2.1504162E-02
   68200.00      2.1301461E-02
   68600.00      2.1101845E-02
   69000.00      2.0905241E-02
   69400.00      2.0711593E-02
   69800.00      2.0520838E-02
   70200.00      2.0332908E-02
   70600.00      2.0147758E-02
   71000.00      1.9965323E-02
   71400.00      1.9785553E-02
   71800.00      1.9608388E-02
   72200.00      1.9433785E-02
   72600.00      1.9261686E-02
   73000.00      1.9092046E-02
   73400.00      1.8924814E-02
   73800.00      1.8759944E-02
   74200.00      1.8597387E-02
   74600.00      1.8437106E-02
   75000.00      1.8279051E-02
   75400.00      1.8123182E-02
   75800.00      1.7969452E-02
   76200.00      1.7817827E-02
   76600.00      1.7668266E-02
   77000.00      1.7520729E-02
   77400.00      1.7375180E-02
   77800.00      1.7231582E-02
   78200.00      1.7089894E-02
   78600.00      1.6950089E-02
   79000.00      1.6812127E-02
   79400.00      1.6675975E-02
   79800.00      1.6541602E-02
   80200.00      1.6408978E-02
   80600.00      1.6278068E-02
   81000.00      1.6148843E-02
   81400.00      1.6021272E-02
   81800.00      1.5895326E-02
   82200.00      1.5770979E-02
   82600.00      1.5648201E-02
   83000.00      1.5526963E-02
   83400.00      1.5407244E-02
   83800.00      1.5289012E-02
   84200.00      1.5172244E-02
   84600.00      1.5056913E-02
   85000.00      1.4943000E-02
   85400.00      1.4830476E-02
   85800.00      1.4719320E-02
   86200.00      1.4609507E-02
   86600.00      1.4501017E-02
   87000.00      1.4393827E-02
   87400.00      1.4287916E-02
   87800.00      1.4183261E-02
   88200.00      1.4079844E-02
   88600.00      1.3977644E-02
   89000.00      1.3876640E-02
   89400.00      1.3776815E-02
   89800.00      1.3678150E-02
   90200.00      1.3580626E-02
   90600.00      1.3484221E-02
   91000.00      1.3388922E-02
   91400.00      1.3294712E-02
   91800.00      1.3201570E-02
   92200.00      1.3109482E-02
   92600.00      1.3018428E-02
   93000.00      1.2928398E-02
   93400.00      1.2839372E-02
   93800.00      1.2751336E-02
   94200.00      1.2664275E-02
   94600.00      1.2578172E-02
   95000.00      1.2493015E-02
   95400.00      1.2408788E-02
   95800.00      1.2325479E-02
   96200.00      1.2243073E-02
   96600.00      1.2161555E-02
   97000.00      1.2080913E-02
   97400.00      1.2001135E-02
   97800.00      1.1922209E-02
   98200.00      1.1844119E-02
   98600.00      1.1766857E-02
   99000.00      1.1690406E-02
   99400.00      1.1614758E-02
   99800.00      1.1539903E-02
   100200.0      1.1465823E-02
   200000.0      3.7682867E-03
   400000.0      1.2344845E-03
   600000.0      6.4265635E-04
   800000.0      4.0441510E-04
   1000000.      2.8235940E-04
   1200000.      2.1053315E-04
   1400000.      1.6426163E-04
   1600000.      1.3248571E-04
